# Transition                      wide 
# Notes                           
# Creation Comment                
# Energy Mode                     KE
# Start Energy in eV              149.6
# End Energy in eV                1259.6
# Energy Step in eV               0.5
# Number Of Sweeps                1
# Dwell Time per Sweep in s       0.3
# Analyser Mode                   CAE
# Pass Energy in eV/Retard Ratio  50
# Magnification                   high
# Divide Voltages By 10           off
# Excitation Source               Mg Ka 1253.6 eV normal
# Excitation Energy in eV         1253.6
# Analyser Workfunction in eV     4.5
# Entrance Slit                   6 x 12 mm
# Exit Slit                       5 x 11 mm
# 
# 
# Kinetic Energy in eV         Counts
# --------------------         ------
149.600                    64408.6000
150.100                    63916.5000
150.600                    63969.7000
151.100                    64094.1000
151.600                    63647.6000
152.100                    63919.8000
152.600                    64085.9000
153.100                    64112.9000
153.600                    64011.7000
154.100                    63958.3000
154.600                    63856.1000
155.100                    63580.2000
155.600                    63578.3000
156.100                    64009.2000
156.600                    63648.9000
157.100                    63894.1000
157.600                    64126.7000
158.100                    63503.3000
158.600                    63073.6000
159.100                    63157.3000
159.600                    63822.2000
160.100                    63601.9000
160.600                    63338.9000
161.100                    63518.1000
161.600                    63005.9000
162.100                    62813.0000
162.600                    62874.2000
163.100                    63268.1000
163.600                    62932.1000
164.100                    62719.2000
164.600                    63023.0000
165.100                    63090.1000
165.600                    63171.7000
166.100                    63114.5000
166.600                    62928.9000
167.100                    62866.2000
167.600                    62523.7000
168.100                    62455.2000
168.600                    62895.0000
169.100                    62523.8000
169.600                    62628.3000
170.100                    62357.4000
170.600                    62333.6000
171.100                    62080.0000
171.600                    62559.9000
172.100                    62436.3000
172.600                    62070.7000
173.100                    62199.8000
173.600                    61829.1000
174.100                    61527.3000
174.600                    61609.1000
175.100                    61708.4000
175.600                    61711.6000
176.100                    61778.9000
176.600                    62020.5000
177.100                    62059.6000
177.600                    61581.3000
178.100                    61794.8000
178.600                    61762.5000
179.100                    61736.5000
179.600                    62056.6000
180.100                    62245.7000
180.600                    62498.1000
181.100                    62463.1000
181.600                    62932.4000
182.100                    62165.6000
182.600                    61712.1000
183.100                    61332.1000
183.600                    61476.3000
184.100                    61264.3000
184.600                    61314.9000
185.100                    61392.0000
185.600                    61666.9000
186.100                    61161.3000
186.600                    61264.5000
187.100                    60961.1000
187.600                    61022.4000
188.100                    60742.6000
188.600                    61341.7000
189.100                    61051.1000
189.600                    60984.7000
190.100                    61095.4000
190.600                    60859.2000
191.100                    60790.1000
191.600                    60671.2000
192.100                    60582.1000
192.600                    60789.6000
193.100                    60306.3000
193.600                    60511.2000
194.100                    60655.9000
194.600                    60741.2000
195.100                    60467.6000
195.600                    60042.9000
196.100                    60191.8000
196.600                    59993.2000
197.100                    59857.1000
197.600                    59983.4000
198.100                    59833.4000
198.600                    60323.1000
199.100                    59928.4000
199.600                    59823.8000
200.100                    60018.3000
200.600                    59783.9000
201.100                    60057.6000
201.600                    60207.8000
202.100                    59868.9000
202.600                    59951.5000
203.100                    60039.2000
203.600                    59783.8000
204.100                    59702.1000
204.600                    59985.0000
205.100                    59943.3000
205.600                    59591.5000
206.100                    59974.3000
206.600                    59395.3000
207.100                    59624.9000
207.600                    59463.7000
208.100                    59425.7000
208.600                    59521.5000
209.100                    59527.7000
209.600                    59382.1000
210.100                    59555.9000
210.600                    59439.9000
211.100                    59615.9000
211.600                    59506.4000
212.100                    59215.1000
212.600                    59759.3000
213.100                    59348.1000
213.600                    59567.3000
214.100                    59453.0000
214.600                    59244.0000
215.100                    59048.6000
215.600                    59297.4000
216.100                    59196.9000
216.600                    59313.3000
217.100                    58997.1000
217.600                    58979.9000
218.100                    58807.1000
218.600                    59347.0000
219.100                    59227.0000
219.600                    59278.1000
220.100                    59565.2000
220.600                    59189.7000
221.100                    59438.0000
221.600                    58991.1000
222.100                    59164.6000
222.600                    58642.1000
223.100                    58763.6000
223.600                    58772.1000
224.100                    58869.0000
224.600                    58355.6000
225.100                    58622.0000
225.600                    58664.5000
226.100                    58970.4000
226.600                    58975.2000
227.100                    58611.7000
227.600                    58470.7000
228.100                    58487.4000
228.600                    58775.4000
229.100                    58462.0000
229.600                    58618.3000
230.100                    58356.9000
230.600                    57985.7000
231.100                    58304.4000
231.600                    58251.1000
232.100                    58413.0000
232.600                    58334.3000
233.100                    58413.1000
233.600                    58658.7000
234.100                    58421.6000
234.600                    58074.7000
235.100                    58475.0000
235.600                    58684.0000
236.100                    58984.0000
236.600                    58984.0000
237.100                    59330.5000
237.600                    59515.9000
238.100                    59735.1000
238.600                    60394.4000
239.100                    60570.8000
239.600                    60361.0000
240.100                    60010.1000
240.600                    59860.8000
241.100                    59117.4000
241.600                    58712.9000
242.100                    58570.8000
242.600                    58722.5000
243.100                    58594.2000
243.600                    58547.5000
244.100                    58509.5000
244.600                    58487.1000
245.100                    58418.2000
245.600                    58408.7000
246.100                    58240.6000
246.600                    58250.5000
247.100                    58081.3000
247.600                    58184.9000
248.100                    57882.1000
248.600                    57784.5000
249.100                    57577.6000
249.600                    57539.6000
250.100                    57382.3000
250.600                    57955.3000
251.100                    57922.8000
251.600                    58241.0000
252.100                    58215.7000
252.600                    58172.3000
253.100                    58166.3000
253.600                    58233.6000
254.100                    58669.1000
254.600                    58500.5000
255.100                    58332.0000
255.600                    58750.1000
256.100                    58762.8000
256.600                    58950.7000
257.100                    59161.4000
257.600                    58939.7000
258.100                    58713.7000
258.600                    58481.9000
259.100                    58568.0000
259.600                    58720.7000
260.100                    58596.5000
260.600                    58646.2000
261.100                    58538.3000
261.600                    58647.3000
262.100                    58802.9000
262.600                    58479.2000
263.100                    58316.5000
263.600                    57958.9000
264.100                    57675.9000
264.600                    57547.0000
265.100                    57245.8000
265.600                    57025.3000
266.100                    56716.4000
266.600                    56463.4000
267.100                    56057.6000
267.600                    55600.5000
268.100                    55385.0000
268.600                    55441.3000
269.100                    54994.3000
269.600                    54668.6000
270.100                    54413.6000
270.600                    53676.4000
271.100                    53507.8000
271.600                    53595.5000
272.100                    53349.8000
272.600                    53089.1000
273.100                    52798.5000
273.600                    52976.7000
274.100                    53086.7000
274.600                    52527.3000
275.100                    52415.0000
275.600                    52103.1000
276.100                    51798.5000
276.600                    51789.8000
277.100                    51503.9000
277.600                    51756.7000
278.100                    51759.9000
278.600                    51340.4000
279.100                    51353.0000
279.600                    51172.4000
280.100                    51063.0000
280.600                    50638.0000
281.100                    51057.7000
281.600                    51056.0000
282.100                    50801.6000
282.600                    50818.9000
283.100                    50799.5000
283.600                    50816.9000
284.100                    50908.6000
284.600                    50812.0000
285.100                    50630.6000
285.600                    50704.0000
286.100                    50429.3000
286.600                    50512.4000
287.100                    50333.2000
287.600                    50545.0000
288.100                    50723.9000
288.600                    50638.4000
289.100                    50712.0000
289.600                    50523.0000
290.100                    50478.0000
290.600                    50486.3000
291.100                    50678.0000
291.600                    50799.5000
292.100                    50365.8000
292.600                    50528.7000
293.100                    50524.2000
293.600                    50896.0000
294.100                    50614.8000
294.600                    50226.7000
295.100                    50104.2000
295.600                    50213.2000
296.100                    50216.1000
296.600                    50217.1000
297.100                    49757.2000
297.600                    49648.8000
298.100                    49944.3000
298.600                    49926.2000
299.100                    49867.4000
299.600                    49525.9000
300.100                    49665.1000
300.600                    49506.6000
301.100                    49255.6000
301.600                    49183.5000
302.100                    49064.2000
302.600                    49116.0000
303.100                    48882.5000
303.600                    48545.8000
304.100                    48761.3000
304.600                    48391.1000
305.100                    48300.3000
305.600                    48403.9000
306.100                    48536.4000
306.600                    48415.6000
307.100                    48576.8000
307.600                    48110.7000
308.100                    48556.3000
308.600                    48427.3000
309.100                    48227.7000
309.600                    48426.6000
310.100                    48458.2000
310.600                    48298.2000
311.100                    48155.7000
311.600                    48148.6000
312.100                    47842.2000
312.600                    48210.3000
313.100                    48057.9000
313.600                    47985.9000
314.100                    48068.3000
314.600                    47834.3000
315.100                    47660.6000
315.600                    47894.5000
316.100                    47752.4000
316.600                    47669.0000
317.100                    47191.5000
317.600                    47543.8000
318.100                    47492.7000
318.600                    47492.3000
319.100                    47601.8000
319.600                    47789.4000
320.100                    47787.4000
320.600                    47993.2000
321.100                    47805.6000
321.600                    47233.0000
322.100                    47025.9000
322.600                    46908.4000
323.100                    47567.5000
323.600                    47436.7000
324.100                    47447.0000
324.600                    47367.2000
325.100                    47361.8000
325.600                    47315.8000
326.100                    46909.7000
326.600                    47048.8000
327.100                    47081.4000
327.600                    47028.9000
328.100                    46799.4000
328.600                    46979.1000
329.100                    46760.2000
329.600                    46506.2000
330.100                    46810.8000
330.600                    46630.6000
331.100                    46457.9000
331.600                    46517.4000
332.100                    46271.5000
332.600                    46197.4000
333.100                    46145.5000
333.600                    46463.0000
334.100                    46076.9000
334.600                    46156.6000
335.100                    46178.0000
335.600                    45866.7000
336.100                    46022.5000
336.600                    46083.5000
337.100                    45952.9000
337.600                    46024.4000
338.100                    45896.2000
338.600                    45652.9000
339.100                    45917.9000
339.600                    46005.7000
340.100                    45660.2000
340.600                    45270.1000
341.100                    45108.0000
341.600                    45260.0000
342.100                    45270.9000
342.600                    45201.8000
343.100                    44989.2000
343.600                    45232.5000
344.100                    44737.1000
344.600                    44494.2000
345.100                    44546.5000
345.600                    44330.3000
346.100                    44232.3000
346.600                    44032.4000
347.100                    44240.0000
347.600                    44228.0000
348.100                    43830.5000
348.600                    43535.1000
349.100                    43755.4000
349.600                    43708.9000
350.100                    43544.3000
350.600                    43301.8000
351.100                    43716.8000
351.600                    43725.3000
352.100                    43358.0000
352.600                    43537.8000
353.100                    43296.7000
353.600                    43007.8000
354.100                    43109.0000
354.600                    43423.9000
355.100                    43122.2000
355.600                    42941.5000
356.100                    42429.1000
356.600                    42760.3000
357.100                    43150.0000
357.600                    42649.7000
358.100                    42650.5000
358.600                    42716.4000
359.100                    42790.9000
359.600                    42305.4000
360.100                    42468.7000
360.600                    42450.5000
361.100                    42477.2000
361.600                    42352.1000
362.100                    42547.9000
362.600                    42688.9000
363.100                    42631.0000
363.600                    42330.8000
364.100                    42124.7000
364.600                    42540.9000
365.100                    42506.5000
365.600                    42269.6000
366.100                    42350.5000
366.600                    42268.2000
367.100                    42631.4000
367.600                    42099.2000
368.100                    42030.0000
368.600                    42171.1000
369.100                    42161.5000
369.600                    42044.9000
370.100                    42127.2000
370.600                    42158.9000
371.100                    42362.6000
371.600                    42275.2000
372.100                    42475.6000
372.600                    42108.5000
373.100                    42281.9000
373.600                    41941.3000
374.100                    42063.9000
374.600                    42168.0000
375.100                    42262.0000
375.600                    42287.2000
376.100                    41984.2000
376.600                    42344.9000
377.100                    41802.4000
377.600                    42035.8000
378.100                    42095.8000
378.600                    41601.1000
379.100                    42176.9000
379.600                    42002.3000
380.100                    42098.2000
380.600                    41968.7000
381.100                    41758.2000
381.600                    41763.1000
382.100                    41743.2000
382.600                    41498.4000
383.100                    41468.3000
383.600                    41219.0000
384.100                    41239.8000
384.600                    40938.5000
385.100                    40525.1000
385.600                    40460.9000
386.100                    40368.3000
386.600                    40268.2000
387.100                    40209.7000
387.600                    40115.8000
388.100                    39716.9000
388.600                    39777.6000
389.100                    39860.4000
389.600                    39540.5000
390.100                    39366.3000
390.600                    39422.6000
391.100                    39083.3000
391.600                    39426.8000
392.100                    39088.8000
392.600                    39382.2000
393.100                    39346.3000
393.600                    39445.9000
394.100                    39723.3000
394.600                    39671.3000
