# Transition                      wide 
# Notes                           
# Creation Comment                
# Energy Mode                     KE
# Start Energy in eV              150
# End Energy in eV                1260
# Energy Step in eV               0.5
# Number Of Sweeps                1
# Dwell Time per Sweep in s       0.3
# Analyser Mode                   CAE
# Pass Energy in eV/Retard Ratio  50
# Magnification                   high
# Divide Voltages By 10           off
# Excitation Source               Mg Ka 1253.6 eV normal
# Excitation Energy in eV         1253.6
# Analyser Workfunction in eV     4.5
# Entrance Slit                   6 x 12 mm
# Exit Slit                       5 x 11 mm
# 
# 
# Kinetic Energy in eV         Counts
# --------------------         ------
150.000                    19548.9000
150.500                    19440.7000
151.000                    19331.9000
151.500                    19419.3000
152.000                    19311.3000
152.500                    19261.4000
153.000                    19260.2000
153.500                    19331.9000
154.000                    19300.7000
154.500                    19059.5000
155.000                    18992.2000
155.500                    19187.1000
156.000                    19164.8000
156.500                    18961.0000
157.000                    19011.8000
157.500                    19055.4000
158.000                    18931.4000
158.500                    18780.3000
159.000                    18744.6000
159.500                    18793.1000
160.000                    18673.1000
160.500                    18650.6000
161.000                    18762.9000
161.500                    18758.6000
162.000                    18774.0000
162.500                    18573.6000
163.000                    18603.0000
163.500                    18349.9000
164.000                    18354.4000
164.500                    18416.0000
165.000                    18374.7000
165.500                    18363.8000
166.000                    18375.4000
166.500                    18373.8000
167.000                    18206.2000
167.500                    18058.6000
168.000                    18121.3000
168.500                    17959.2000
169.000                    18015.2000
169.500                    17990.9000
170.000                    17972.0000
170.500                    18043.1000
171.000                    18398.7000
171.500                    18559.4000
172.000                    19092.4000
172.500                    19599.8000
173.000                    20142.3000
173.500                    20265.4000
174.000                    19749.2000
174.500                    19358.5000
175.000                    18597.1000
175.500                    18155.2000
176.000                    17664.8000
176.500                    17675.4000
177.000                    17454.2000
177.500                    17586.9000
178.000                    17653.9000
178.500                    17608.7000
179.000                    17435.3000
179.500                    17357.0000
180.000                    17627.0000
180.500                    17329.7000
181.000                    17323.1000
181.500                    17200.5000
182.000                    17395.1000
182.500                    17279.7000
183.000                    17394.0000
183.500                    17370.0000
184.000                    17203.2000
184.500                    17142.0000
185.000                    16916.6000
185.500                    16773.4000
186.000                    16993.6000
186.500                    16996.1000
187.000                    16879.6000
187.500                    16878.3000
188.000                    16812.0000
188.500                    16719.8000
189.000                    16825.2000
189.500                    16665.1000
190.000                    16848.6000
190.500                    16884.0000
191.000                    16828.4000
191.500                    16789.0000
192.000                    16850.0000
192.500                    16650.5000
193.000                    16684.8000
193.500                    16657.1000
194.000                    16401.1000
194.500                    16426.8000
195.000                    16277.5000
195.500                    16298.1000
196.000                    16450.4000
196.500                    16214.6000
197.000                    16249.8000
197.500                    16449.3000
198.000                    16195.2000
198.500                    16394.9000
199.000                    16340.9000
199.500                    16004.6000
200.000                    16230.1000
200.500                    16221.8000
201.000                    16197.3000
201.500                    16233.4000
202.000                    16073.6000
202.500                    16194.9000
203.000                    16115.0000
203.500                    16091.7000
204.000                    16145.3000
204.500                    16339.1000
205.000                    16407.5000
205.500                    16355.3000
206.000                    16378.5000
206.500                    16344.5000
207.000                    16516.0000
207.500                    16363.3000
208.000                    16107.5000
208.500                    16318.6000
209.000                    16272.1000
209.500                    16046.1000
210.000                    15764.9000
210.500                    15721.8000
211.000                    15486.8000
211.500                    15526.9000
212.000                    15524.8000
212.500                    15403.4000
213.000                    15396.9000
213.500                    15270.2000
214.000                    15210.5000
214.500                    15080.9000
215.000                    15106.7000
215.500                    15263.5000
216.000                    15120.8000
216.500                    15119.1000
217.000                    15099.0000
217.500                    15042.7000
218.000                    15010.1000
218.500                    15109.4000
219.000                    14915.5000
219.500                    15065.1000
220.000                    14921.0000
220.500                    14987.8000
221.000                    15125.0000
221.500                    15111.4000
222.000                    14931.3000
222.500                    14963.6000
223.000                    15180.7000
223.500                    14996.7000
224.000                    14993.5000
224.500                    14926.9000
225.000                    15003.0000
225.500                    14832.7000
226.000                    14856.0000
226.500                    14971.5000
227.000                    15080.5000
227.500                    14762.3000
228.000                    15189.0000
228.500                    15097.3000
229.000                    15178.8000
229.500                    15144.2000
230.000                    15182.9000
230.500                    15517.3000
231.000                    15469.7000
231.500                    15607.5000
232.000                    15441.6000
232.500                    15815.3000
233.000                    15450.4000
233.500                    15437.3000
234.000                    15308.6000
234.500                    14968.6000
235.000                    15066.4000
235.500                    14965.0000
236.000                    14940.7000
236.500                    15058.5000
237.000                    15010.0000
237.500                    14712.2000
238.000                    14913.3000
238.500                    15058.3000
239.000                    15046.7000
239.500                    15180.3000
240.000                    15059.5000
240.500                    14865.0000
241.000                    14940.9000
241.500                    14803.3000
242.000                    14971.9000
242.500                    14907.2000
243.000                    14979.8000
243.500                    14890.4000
244.000                    14625.1000
244.500                    14796.7000
245.000                    14869.6000
245.500                    15049.2000
246.000                    15000.7000
246.500                    15199.4000
247.000                    15069.4000
247.500                    15189.6000
248.000                    15049.2000
248.500                    15152.7000
249.000                    15237.9000
249.500                    15329.8000
250.000                    15390.8000
250.500                    15379.9000
251.000                    15477.1000
251.500                    15365.9000
252.000                    15342.3000
252.500                    15162.0000
253.000                    15184.7000
253.500                    15288.7000
254.000                    15237.3000
254.500                    15155.1000
255.000                    15235.5000
255.500                    15181.6000
256.000                    15139.0000
256.500                    14960.2000
257.000                    15005.5000
257.500                    14887.2000
258.000                    14841.5000
258.500                    14794.9000
259.000                    14768.5000
259.500                    14484.2000
260.000                    14446.0000
260.500                    14320.2000
261.000                    14360.4000
261.500                    14268.3000
262.000                    14300.7000
262.500                    14223.3000
263.000                    13958.1000
263.500                    13867.9000
264.000                    13828.6000
264.500                    13802.3000
265.000                    13936.2000
265.500                    13585.0000
266.000                    13450.4000
266.500                    13282.3000
267.000                    13384.0000
267.500                    13323.1000
268.000                    13533.2000
268.500                    13353.5000
269.000                    13173.9000
269.500                    13237.0000
270.000                    13354.2000
270.500                    12871.8000
271.000                    13111.0000
271.500                    13181.4000
272.000                    13027.7000
272.500                    12963.9000
273.000                    13040.0000
273.500                    13098.9000
274.000                    12995.0000
274.500                    12969.8000
275.000                    12986.4000
275.500                    12951.6000
276.000                    12886.2000
276.500                    12883.4000
277.000                    12901.2000
277.500                    12852.9000
278.000                    12820.0000
278.500                    12921.0000
279.000                    12893.1000
279.500                    12854.9000
280.000                    12882.7000
280.500                    12928.6000
281.000                    13048.5000
281.500                    12798.7000
282.000                    12521.1000
282.500                    12506.3000
283.000                    12612.7000
283.500                    12805.4000
284.000                    12850.4000
284.500                    12869.9000
285.000                    12734.6000
285.500                    12939.2000
286.000                    12892.7000
286.500                    12789.4000
287.000                    12871.6000
287.500                    12680.8000
288.000                    12927.7000
288.500                    12626.5000
289.000                    12546.0000
289.500                    12581.0000
290.000                    12571.6000
290.500                    12604.5000
291.000                    12608.1000
291.500                    12603.9000
292.000                    12532.2000
292.500                    12656.9000
293.000                    12467.5000
293.500                    12679.9000
294.000                    12582.8000
294.500                    12660.0000
295.000                    12666.0000
295.500                    12647.1000
296.000                    12540.0000
296.500                    12479.5000
297.000                    12447.8000
297.500                    12642.0000
298.000                    12597.7000
298.500                    12562.0000
299.000                    12576.3000
299.500                    12507.2000
300.000                    12668.2000
300.500                    12537.1000
301.000                    12636.0000
301.500                    12554.8000
302.000                    12403.2000
302.500                    12498.4000
303.000                    12591.6000
303.500                    12543.2000
304.000                    12678.1000
304.500                    12563.6000
305.000                    12716.0000
305.500                    12624.0000
306.000                    12624.2000
306.500                    12452.7000
307.000                    12552.9000
307.500                    12626.9000
308.000                    12446.8000
308.500                    12556.2000
309.000                    12692.5000
309.500                    12556.0000
310.000                    12572.8000
310.500                    12507.7000
311.000                    12612.7000
311.500                    12590.5000
312.000                    12545.4000
312.500                    12574.9000
313.000                    12680.3000
313.500                    12468.8000
314.000                    12682.0000
314.500                    12534.1000
315.000                    12617.3000
315.500                    12534.6000
316.000                    12586.5000
316.500                    12561.9000
317.000                    12574.6000
317.500                    12457.5000
318.000                    12334.0000
318.500                    12423.8000
319.000                    12441.0000
319.500                    12455.8000
320.000                    12499.9000
320.500                    12599.3000
321.000                    12579.1000
321.500                    12622.9000
322.000                    12583.0000
322.500                    12619.5000
323.000                    12435.2000
323.500                    12395.8000
324.000                    12459.4000
324.500                    12449.4000
325.000                    12382.2000
325.500                    12159.7000
326.000                    12338.2000
326.500                    12485.0000
327.000                    12518.2000
327.500                    12414.2000
328.000                    12628.4000
328.500                    12490.3000
329.000                    12493.9000
329.500                    12522.3000
330.000                    12338.6000
330.500                    12418.5000
331.000                    12316.5000
331.500                    12383.3000
332.000                    12516.5000
332.500                    12501.6000
333.000                    12514.9000
333.500                    12497.8000
334.000                    12387.9000
334.500                    12313.9000
335.000                    12307.5000
335.500                    12396.5000
336.000                    12662.3000
336.500                    12414.9000
337.000                    12508.1000
337.500                    12581.3000
338.000                    12416.6000
338.500                    12518.9000
339.000                    12480.5000
339.500                    12517.0000
340.000                    12317.7000
340.500                    12479.6000
341.000                    12607.2000
341.500                    12457.0000
342.000                    12544.1000
342.500                    12414.7000
343.000                    12561.8000
343.500                    12413.4000
344.000                    12418.1000
344.500                    12605.9000
345.000                    12278.0000
345.500                    12613.5000
346.000                    12629.3000
346.500                    12675.6000
347.000                    12479.5000
347.500                    12493.5000
348.000                    12560.1000
348.500                    12544.2000
349.000                    12665.5000
349.500                    12658.1000
350.000                    12507.8000
350.500                    12554.3000
351.000                    12562.5000
351.500                    12382.4000
352.000                    12486.0000
352.500                    12649.7000
353.000                    12626.1000
353.500                    12525.7000
354.000                    12480.6000
354.500                    12571.0000
355.000                    12508.2000
355.500                    12394.4000
356.000                    12645.9000
356.500                    12776.9000
357.000                    12554.7000
357.500                    12708.2000
358.000                    12626.6000
358.500                    12814.9000
359.000                    12583.2000
359.500                    12556.1000
360.000                    12552.0000
360.500                    12595.9000
361.000                    12690.2000
361.500                    12685.6000
362.000                    12651.0000
362.500                    12535.4000
363.000                    12732.5000
363.500                    12684.0000
364.000                    12629.4000
364.500                    12696.5000
365.000                    12648.4000
365.500                    12665.3000
366.000                    12696.2000
366.500                    12664.5000
367.000                    12652.8000
367.500                    12732.8000
368.000                    12592.0000
368.500                    12727.1000
369.000                    12615.5000
369.500                    12732.6000
370.000                    12741.6000
370.500                    12679.3000
371.000                    12722.1000
371.500                    12788.6000
372.000                    12673.4000
372.500                    12737.9000
373.000                    12735.6000
373.500                    12757.6000
374.000                    12791.2000
374.500                    12740.6000
375.000                    12643.0000
375.500                    12786.5000
376.000                    12802.4000
376.500                    12796.1000
377.000                    12618.7000
377.500                    12835.5000
378.000                    12828.2000
378.500                    12968.8000
379.000                    12862.9000
379.500                    12794.4000
380.000                    12717.6000
380.500                    12989.1000
381.000                    12753.0000
381.500                    12644.0000
382.000                    12796.0000
382.500                    13013.6000
383.000                    12791.7000
383.500                    12806.9000
384.000                    12801.4000
384.500                    12888.4000
385.000                    12831.4000
385.500                    12740.6000
386.000                    13012.2000
386.500                    12750.5000
387.000                    12643.4000
387.500                    12725.6000
388.000                    12867.0000
388.500                    12870.8000
389.000                    13041.2000
389.500                    12999.5000
390.000                    12992.2000
390.500                    12882.4000
391.000                    12864.1000
391.500                    12916.1000
392.000                    12949.1000
392.500                    13111.0000
393.000                    12882.8000
393.500                    13039.7000
394.000                    13293.1000
394.500                    13177.6000
395.000                    13202.6000
