# Transition                      wide 
# Notes                           
# Creation Comment                
# Energy Mode                     KE
# Start Energy in eV              150
# End Energy in eV                1260
# Energy Step in eV               0.5
# Number Of Sweeps                1
# Dwell Time per Sweep in s       0.2
# Analyser Mode                   CAE
# Pass Energy in eV/Retard Ratio  50
# Magnification                   high
# Divide Voltages By 10           off
# Excitation Source               Mg Ka 1253.6 eV normal
# Excitation Energy in eV         1253.6
# Analyser Workfunction in eV     4.5
# Entrance Slit                   6 x 12 mm
# Exit Slit                       5 x 11 mm
# 
# 
# Kinetic Energy in eV         Counts
# --------------------         ------
150.000                    56133.5000
150.500                    55808.5000
151.000                    55897.4000
151.500                    56012.7000
152.000                    55685.7000
152.500                    56053.1000
153.000                    55940.2000
153.500                    55838.3000
154.000                    55694.9000
154.500                    55852.8000
155.000                    55578.2000
155.500                    55381.9000
156.000                    55228.4000
156.500                    55245.7000
157.000                    55118.7000
157.500                    55005.3000
158.000                    54734.1000
158.500                    55061.9000
159.000                    54956.7000
159.500                    55075.5000
160.000                    55297.7000
160.500                    55034.4000
161.000                    55051.1000
161.500                    54895.2000
162.000                    55022.1000
162.500                    54465.7000
163.000                    54689.9000
163.500                    54562.3000
164.000                    54456.9000
164.500                    54714.6000
165.000                    54651.6000
165.500                    54380.8000
166.000                    54316.3000
166.500                    54516.0000
167.000                    54066.6000
167.500                    53823.2000
168.000                    54085.5000
168.500                    53972.3000
169.000                    54030.2000
169.500                    53924.6000
170.000                    53768.7000
170.500                    53945.9000
171.000                    54006.0000
171.500                    53723.8000
172.000                    53559.8000
172.500                    53542.4000
173.000                    53122.5000
173.500                    53021.5000
174.000                    53599.4000
174.500                    53015.0000
175.000                    53303.6000
175.500                    53282.3000
176.000                    53164.5000
176.500                    53021.9000
177.000                    53250.3000
177.500                    53475.1000
178.000                    53419.2000
178.500                    53321.8000
179.000                    53017.5000
179.500                    53075.9000
180.000                    53001.5000
180.500                    53103.9000
181.000                    52541.8000
181.500                    52718.3000
182.000                    52804.1000
182.500                    52837.0000
183.000                    52580.0000
183.500                    52701.9000
184.000                    52451.9000
184.500                    52446.9000
185.000                    52138.9000
185.500                    52644.5000
186.000                    52177.1000
186.500                    52488.1000
187.000                    52434.6000
187.500                    52271.4000
188.000                    52296.2000
188.500                    52014.3000
189.000                    52123.5000
189.500                    52302.3000
190.000                    52831.0000
190.500                    52385.8000
191.000                    52358.0000
191.500                    51849.2000
192.000                    51926.3000
192.500                    52188.4000
193.000                    52037.8000
193.500                    51818.0000
194.000                    51518.7000
194.500                    51316.6000
195.000                    51522.1000
195.500                    51533.8000
196.000                    51570.8000
196.500                    51347.3000
197.000                    51377.5000
197.500                    51188.5000
198.000                    51315.7000
198.500                    51696.6000
199.000                    51457.3000
199.500                    51306.0000
200.000                    50837.6000
200.500                    50908.2000
201.000                    51268.1000
201.500                    50882.4000
202.000                    50946.5000
202.500                    50581.2000
203.000                    50742.7000
203.500                    50538.0000
204.000                    50864.2000
204.500                    50962.3000
205.000                    50834.0000
205.500                    50841.4000
206.000                    50986.2000
206.500                    50602.6000
207.000                    50597.1000
207.500                    50505.8000
208.000                    50647.6000
208.500                    50523.4000
209.000                    50352.0000
209.500                    50508.1000
210.000                    50479.8000
210.500                    50419.5000
211.000                    50750.5000
211.500                    50248.3000
212.000                    50372.9000
212.500                    50360.8000
213.000                    50326.0000
213.500                    50143.2000
214.000                    50225.0000
214.500                    50000.6000
215.000                    50003.4000
215.500                    50132.6000
216.000                    50040.8000
216.500                    50022.4000
217.000                    49923.0000
217.500                    49610.5000
218.000                    49861.8000
218.500                    49879.8000
219.000                    49901.9000
219.500                    49907.1000
220.000                    50082.2000
220.500                    49788.7000
221.000                    49816.9000
221.500                    49661.1000
222.000                    49865.0000
222.500                    50216.9000
223.000                    49575.8000
223.500                    49449.4000
224.000                    49734.5000
224.500                    49649.6000
225.000                    49686.1000
225.500                    49416.0000
226.000                    49659.9000
226.500                    49380.7000
227.000                    49631.1000
227.500                    49286.4000
228.000                    49037.2000
228.500                    49219.8000
229.000                    49635.0000
229.500                    49163.3000
230.000                    49120.5000
230.500                    48982.6000
231.000                    48855.8000
231.500                    49116.3000
232.000                    49149.7000
232.500                    48741.9000
233.000                    48729.4000
233.500                    48832.0000
234.000                    49113.7000
234.500                    49408.5000
235.000                    49086.4000
235.500                    48891.9000
236.000                    49175.6000
236.500                    49115.8000
237.000                    49348.0000
237.500                    49205.3000
238.000                    49629.2000
238.500                    49734.4000
239.000                    49706.7000
239.500                    50207.4000
240.000                    50200.3000
240.500                    49837.2000
241.000                    49645.1000
241.500                    49319.6000
242.000                    48929.5000
242.500                    48967.9000
243.000                    49025.4000
243.500                    48734.5000
244.000                    48625.1000
244.500                    48357.4000
245.000                    48520.5000
245.500                    48765.7000
246.000                    48947.2000
246.500                    48805.2000
247.000                    48545.6000
247.500                    48503.7000
248.000                    48673.9000
248.500                    48211.7000
249.000                    48480.6000
249.500                    48243.4000
250.000                    48464.9000
250.500                    48169.6000
251.000                    48474.0000
251.500                    48220.9000
252.000                    48364.5000
252.500                    48497.5000
253.000                    48915.9000
253.500                    48736.5000
254.000                    48723.9000
254.500                    48738.7000
255.000                    48976.8000
255.500                    48993.6000
256.000                    49392.7000
256.500                    49094.7000
257.000                    48880.8000
257.500                    49119.2000
258.000                    49390.3000
258.500                    48902.3000
259.000                    48924.7000
259.500                    48557.8000
260.000                    48756.2000
260.500                    48987.8000
261.000                    48890.1000
261.500                    48692.1000
262.000                    48748.5000
262.500                    48636.3000
263.000                    48611.2000
263.500                    48258.9000
264.000                    48207.1000
264.500                    48018.8000
265.000                    47494.4000
265.500                    47635.4000
266.000                    47743.5000
266.500                    47438.9000
267.000                    47159.4000
267.500                    46639.1000
268.000                    46867.0000
268.500                    46747.1000
269.000                    46390.2000
269.500                    46505.2000
270.000                    46298.3000
270.500                    45866.3000
271.000                    45795.0000
271.500                    45593.4000
272.000                    45514.3000
272.500                    45317.8000
273.000                    45048.2000
273.500                    45119.1000
274.000                    44995.7000
274.500                    45034.6000
275.000                    44497.9000
275.500                    44822.4000
276.000                    44673.4000
276.500                    44738.9000
277.000                    44968.6000
277.500                    44394.7000
278.000                    44440.3000
278.500                    44513.3000
279.000                    44241.2000
279.500                    44147.4000
280.000                    44269.6000
280.500                    44199.1000
281.000                    44113.3000
281.500                    44264.9000
282.000                    44430.1000
282.500                    44174.1000
283.000                    44103.0000
283.500                    43937.9000
284.000                    43825.1000
284.500                    44043.3000
285.000                    44002.2000
285.500                    44103.0000
286.000                    43826.0000
286.500                    43777.1000
287.000                    43975.2000
287.500                    44026.3000
288.000                    43569.7000
288.500                    43446.1000
289.000                    43735.8000
289.500                    43631.3000
290.000                    43932.5000
290.500                    44081.1000
291.000                    43837.6000
291.500                    43954.4000
292.000                    43972.0000
292.500                    43904.9000
293.000                    43840.0000
293.500                    43889.3000
294.000                    43780.8000
294.500                    43563.7000
295.000                    43726.8000
295.500                    43668.9000
296.000                    43790.0000
296.500                    43514.3000
297.000                    43684.7000
297.500                    43059.7000
298.000                    43144.4000
298.500                    43279.5000
299.000                    43284.9000
299.500                    43238.2000
300.000                    42781.6000
300.500                    42517.0000
301.000                    42608.0000
301.500                    42655.7000
302.000                    42962.7000
302.500                    42610.5000
303.000                    42416.8000
303.500                    42023.5000
304.000                    42162.4000
304.500                    41926.1000
305.000                    41706.3000
305.500                    41961.6000
306.000                    41746.2000
306.500                    42037.6000
307.000                    42167.8000
307.500                    41933.2000
308.000                    41980.2000
308.500                    41534.8000
309.000                    41904.1000
309.500                    42222.3000
310.000                    41921.1000
310.500                    41506.2000
311.000                    41759.7000
311.500                    41720.4000
312.000                    42027.7000
312.500                    41812.0000
313.000                    41491.8000
313.500                    41511.1000
314.000                    41306.1000
314.500                    41717.0000
315.000                    41885.5000
315.500                    41959.4000
316.000                    41431.0000
316.500                    41152.3000
317.000                    41249.5000
317.500                    41282.1000
318.000                    41235.4000
318.500                    41256.6000
319.000                    41069.9000
319.500                    41179.3000
320.000                    41314.0000
320.500                    41321.5000
321.000                    41170.4000
321.500                    41101.5000
322.000                    40878.9000
322.500                    40986.2000
323.000                    40766.0000
323.500                    41170.8000
324.000                    41038.4000
324.500                    40645.4000
325.000                    40651.9000
325.500                    40741.2000
326.000                    40729.8000
326.500                    40553.8000
327.000                    40751.9000
327.500                    41155.4000
328.000                    40680.2000
328.500                    40742.3000
329.000                    40409.7000
329.500                    40462.4000
330.000                    40364.1000
330.500                    40690.5000
331.000                    40587.6000
331.500                    40373.8000
332.000                    40040.2000
332.500                    40408.5000
333.000                    40308.3000
333.500                    40094.1000
334.000                    39778.3000
334.500                    40233.0000
335.000                    40105.9000
335.500                    40136.2000
336.000                    40064.4000
336.500                    39690.5000
337.000                    39519.5000
337.500                    40028.7000
338.000                    40018.7000
338.500                    39984.1000
339.000                    39450.3000
339.500                    39638.5000
340.000                    39536.7000
340.500                    39288.8000
341.000                    39178.1000
341.500                    39321.8000
342.000                    39249.4000
342.500                    39117.6000
343.000                    38838.8000
343.500                    38741.4000
344.000                    38519.9000
344.500                    38366.7000
345.000                    38169.8000
345.500                    38244.4000
346.000                    38052.7000
346.500                    38343.7000
347.000                    37992.3000
347.500                    37744.5000
348.000                    37766.1000
348.500                    37511.2000
349.000                    37675.6000
349.500                    37163.6000
350.000                    36928.3000
350.500                    36944.8000
351.000                    36790.1000
351.500                    36728.0000
352.000                    37064.4000
352.500                    36913.9000
353.000                    36675.5000
353.500                    36573.5000
354.000                    36588.7000
354.500                    36423.3000
355.000                    36320.7000
355.500                    36502.3000
356.000                    36385.7000
356.500                    36384.2000
357.000                    36219.9000
357.500                    36470.2000
358.000                    36115.5000
358.500                    36056.1000
359.000                    35848.2000
359.500                    35892.4000
360.000                    36024.9000
360.500                    35842.2000
361.000                    36012.7000
361.500                    35875.9000
362.000                    35723.5000
362.500                    35927.6000
363.000                    35781.6000
363.500                    35654.2000
364.000                    35807.9000
364.500                    35711.9000
365.000                    35578.2000
365.500                    35680.5000
366.000                    35798.9000
366.500                    35612.0000
367.000                    35764.3000
367.500                    35981.0000
368.000                    35952.5000
368.500                    35888.0000
369.000                    36116.5000
369.500                    35705.6000
370.000                    35531.8000
370.500                    35452.2000
371.000                    35533.9000
371.500                    35600.2000
372.000                    35755.1000
372.500                    35846.4000
373.000                    36015.4000
373.500                    35607.4000
374.000                    35804.2000
374.500                    35807.0000
375.000                    35554.7000
375.500                    35733.5000
376.000                    35380.1000
376.500                    35507.4000
377.000                    35512.6000
377.500                    35580.9000
378.000                    35538.2000
378.500                    35862.6000
379.000                    35637.2000
379.500                    35737.9000
380.000                    35776.1000
380.500                    35478.8000
381.000                    35644.9000
381.500                    35556.8000
382.000                    35550.4000
382.500                    35540.3000
383.000                    35325.3000
383.500                    35134.6000
384.000                    34833.7000
384.500                    35035.0000
385.000                    35152.1000
385.500                    34955.4000
386.000                    34635.8000
386.500                    34565.9000
387.000                    34368.2000
387.500                    34120.0000
388.000                    34203.9000
388.500                    33970.7000
389.000                    33990.7000
389.500                    33799.7000
390.000                    33611.5000
390.500                    33681.5000
391.000                    33562.9000
391.500                    33165.1000
392.000                    33188.7000
392.500                    33437.7000
393.000                    33581.0000
393.500                    33239.9000
394.000                    33528.4000
394.500                    33923.1000
395.000                    33884.3000
