# Transition                      wide 
# Notes                           
# Creation Comment                
# Energy Mode                     KE
# Start Energy in eV              150
# End Energy in eV                1260
# Energy Step in eV               0.5
# Number Of Sweeps                1
# Dwell Time per Sweep in s       0.2
# Analyser Mode                   CAE
# Pass Energy in eV/Retard Ratio  50
# Magnification                   high
# Divide Voltages By 10           off
# Excitation Source               Mg Ka 1253.6 eV normal
# Excitation Energy in eV         1253.6
# Analyser Workfunction in eV     4.5
# Entrance Slit                   6 x 12 mm
# Exit Slit                       5 x 11 mm
# 
# 
# Kinetic Energy in eV         Counts
# --------------------         ------
150.000                    92533.6000
150.500                    91962.4000
151.000                    92000.0000
151.500                    91720.3000
152.000                    92057.7000
152.500                    92518.2000
153.000                    92237.9000
153.500                    92395.0000
154.000                    91917.6000
154.500                    91763.9000
155.000                    91790.7000
155.500                    91570.9000
156.000                    92046.5000
156.500                    92265.9000
157.000                    91871.6000
157.500                    91616.1000
158.000                    91418.1000
158.500                    91704.7000
159.000                    91820.2000
159.500                    91859.4000
160.000                    91933.4000
160.500                    91088.8000
161.000                    91004.8000
161.500                    90332.2000
162.000                    90458.0000
162.500                    90561.3000
163.000                    90138.7000
163.500                    89545.7000
164.000                    88889.1000
164.500                    88784.3000
165.000                    88610.9000
165.500                    88071.2000
166.000                    87903.1000
166.500                    87802.7000
167.000                    87187.8000
167.500                    87884.7000
168.000                    87315.6000
168.500                    87326.2000
169.000                    87073.7000
169.500                    86561.7000
170.000                    86734.3000
170.500                    86323.7000
171.000                    85947.6000
171.500                    85724.3000
172.000                    85725.0000
172.500                    85759.6000
173.000                    85457.8000
173.500                    85385.9000
174.000                    85484.3000
174.500                    85348.3000
175.000                    85017.6000
175.500                    84975.1000
176.000                    84978.5000
176.500                    84440.5000
177.000                    84843.6000
177.500                    84678.0000
178.000                    84359.3000
178.500                    84826.2000
179.000                    84420.5000
179.500                    85096.5000
180.000                    84776.8000
180.500                    84379.6000
181.000                    85207.6000
181.500                    85253.1000
182.000                    84615.6000
182.500                    83665.8000
183.000                    83725.3000
183.500                    83295.5000
184.000                    83376.0000
184.500                    83149.4000
185.000                    82905.6000
185.500                    83381.0000
186.000                    82841.0000
186.500                    82648.3000
187.000                    83018.8000
187.500                    82745.2000
188.000                    82515.5000
188.500                    82341.7000
189.000                    81636.9000
189.500                    82404.3000
190.000                    81605.4000
190.500                    81807.5000
191.000                    82516.1000
191.500                    81900.7000
192.000                    81554.2000
192.500                    81556.7000
193.000                    81379.6000
193.500                    81634.0000
194.000                    80956.8000
194.500                    80108.0000
195.000                    80368.1000
195.500                    79929.3000
196.000                    79300.2000
196.500                    79440.3000
197.000                    79746.0000
197.500                    79746.4000
198.000                    79488.3000
198.500                    79763.0000
199.000                    80092.6000
199.500                    79711.4000
200.000                    79232.5000
200.500                    78999.6000
201.000                    78911.6000
201.500                    78519.1000
202.000                    78321.2000
202.500                    78619.6000
203.000                    78719.3000
203.500                    78806.9000
204.000                    78450.8000
204.500                    78530.9000
205.000                    78379.7000
205.500                    78206.4000
206.000                    78156.4000
206.500                    78460.3000
207.000                    78181.0000
207.500                    78236.3000
208.000                    78286.4000
208.500                    78379.3000
209.000                    78127.8000
209.500                    78477.6000
210.000                    78641.0000
210.500                    78152.3000
211.000                    77849.2000
211.500                    78126.5000
212.000                    78156.2000
212.500                    78155.0000
213.000                    77889.6000
213.500                    77943.7000
214.000                    77859.4000
214.500                    78348.5000
215.000                    78293.5000
215.500                    77846.0000
216.000                    77499.4000
216.500                    77688.5000
217.000                    77783.6000
217.500                    76883.1000
218.000                    76997.5000
218.500                    77146.8000
219.000                    76689.8000
219.500                    76241.7000
220.000                    75985.0000
220.500                    76007.6000
221.000                    75907.0000
221.500                    75785.9000
222.000                    76121.3000
222.500                    76070.6000
223.000                    75969.9000
223.500                    76128.4000
224.000                    75603.8000
224.500                    75485.3000
225.000                    75350.7000
225.500                    75433.5000
226.000                    75457.6000
226.500                    75988.1000
227.000                    76141.3000
227.500                    76332.3000
228.000                    76282.3000
228.500                    76598.1000
229.000                    76032.2000
229.500                    76188.5000
230.000                    76224.4000
230.500                    75822.2000
231.000                    75871.3000
231.500                    76152.8000
232.000                    75891.2000
232.500                    75756.2000
233.000                    75922.3000
233.500                    75333.2000
234.000                    75323.1000
234.500                    75262.9000
235.000                    74741.6000
235.500                    74612.6000
236.000                    74285.8000
236.500                    74613.2000
237.000                    75085.0000
237.500                    75274.5000
238.000                    75003.5000
238.500                    74812.3000
239.000                    74655.3000
239.500                    75158.9000
240.000                    75031.8000
240.500                    75185.6000
241.000                    74402.7000
241.500                    73854.9000
242.000                    73901.7000
242.500                    73934.4000
243.000                    73739.4000
243.500                    73865.8000
244.000                    73755.9000
244.500                    73581.7000
245.000                    73010.8000
245.500                    73227.5000
246.000                    73417.3000
246.500                    72842.5000
247.000                    73047.3000
247.500                    73129.0000
248.000                    72858.9000
248.500                    71982.7000
249.000                    72520.8000
249.500                    72871.3000
250.000                    72733.9000
250.500                    72556.3000
251.000                    72269.6000
251.500                    72522.7000
252.000                    72711.1000
252.500                    72225.3000
253.000                    72981.3000
253.500                    72801.5000
254.000                    72486.5000
254.500                    72714.4000
255.000                    72879.5000
255.500                    72705.0000
256.000                    72770.2000
256.500                    73168.0000
257.000                    72734.8000
257.500                    72692.0000
258.000                    73264.7000
258.500                    73208.2000
259.000                    73532.8000
259.500                    73343.3000
260.000                    73488.5000
260.500                    74066.6000
261.000                    73772.3000
261.500                    74202.5000
262.000                    73726.1000
262.500                    73993.8000
263.000                    74154.1000
263.500                    73827.8000
264.000                    73806.9000
264.500                    74357.4000
265.000                    73495.4000
265.500                    72953.2000
266.000                    73011.8000
266.500                    72714.7000
267.000                    72784.9000
267.500                    71947.1000
268.000                    71735.3000
268.500                    71169.9000
269.000                    71408.8000
269.500                    70748.6000
270.000                    70258.2000
270.500                    70234.8000
271.000                    70046.0000
271.500                    70143.5000
272.000                    69545.3000
272.500                    69472.6000
273.000                    69294.2000
273.500                    68574.3000
274.000                    68377.4000
274.500                    68267.2000
275.000                    68215.7000
275.500                    67816.5000
276.000                    67731.0000
276.500                    68063.5000
277.000                    68547.1000
277.500                    68327.2000
278.000                    67779.5000
278.500                    68524.7000
279.000                    68240.8000
279.500                    68220.6000
280.000                    67799.4000
280.500                    68084.1000
281.000                    68630.7000
281.500                    67858.0000
282.000                    68484.6000
282.500                    68167.4000
283.000                    68289.1000
283.500                    68556.2000
284.000                    68547.9000
284.500                    68986.7000
285.000                    68430.3000
285.500                    68590.0000
286.000                    68750.2000
286.500                    68555.8000
287.000                    68708.2000
287.500                    68331.0000
288.000                    68282.5000
288.500                    68324.9000
289.000                    68701.9000
289.500                    68213.6000
290.000                    68586.8000
290.500                    68896.2000
291.000                    68839.3000
291.500                    69447.5000
292.000                    69636.4000
292.500                    69543.7000
293.000                    69578.1000
293.500                    69426.7000
294.000                    69723.1000
294.500                    69581.8000
295.000                    68987.6000
295.500                    68942.5000
296.000                    68289.1000
296.500                    68265.4000
297.000                    67873.3000
297.500                    67472.2000
298.000                    67253.6000
298.500                    67497.1000
299.000                    67541.1000
299.500                    66728.5000
300.000                    66541.1000
300.500                    66257.3000
301.000                    66210.4000
301.500                    65962.5000
302.000                    65914.2000
302.500                    66060.7000
303.000                    65783.3000
303.500                    65512.9000
304.000                    65301.1000
304.500                    65235.3000
305.000                    65084.6000
305.500                    65008.5000
306.000                    64001.4000
306.500                    64164.3000
307.000                    64948.6000
307.500                    64710.8000
308.000                    65041.2000
308.500                    65303.3000
309.000                    65242.4000
309.500                    64986.7000
310.000                    64954.4000
310.500                    65065.5000
311.000                    65635.7000
311.500                    65357.2000
312.000                    65178.1000
312.500                    65837.3000
313.000                    65705.6000
313.500                    65561.3000
314.000                    65896.5000
314.500                    66078.5000
315.000                    66096.7000
315.500                    66101.4000
316.000                    66137.6000
316.500                    66337.4000
317.000                    66266.4000
317.500                    66563.9000
318.000                    66648.3000
318.500                    66868.0000
319.000                    66929.1000
319.500                    67058.0000
320.000                    67294.7000
320.500                    67096.1000
321.000                    67243.2000
321.500                    67121.2000
322.000                    66883.9000
322.500                    67169.8000
323.000                    67260.3000
323.500                    66807.1000
324.000                    67131.9000
324.500                    66672.3000
325.000                    66562.3000
325.500                    66393.0000
326.000                    66434.1000
326.500                    67083.5000
327.000                    67032.8000
327.500                    66981.9000
328.000                    66908.2000
328.500                    66916.5000
329.000                    67290.2000
329.500                    67264.2000
330.000                    67326.3000
330.500                    67434.4000
331.000                    67634.4000
331.500                    67834.1000
332.000                    67955.7000
332.500                    67392.4000
333.000                    67531.0000
333.500                    67347.5000
334.000                    67753.8000
334.500                    67960.9000
335.000                    67657.0000
335.500                    67177.8000
336.000                    67186.3000
336.500                    66357.0000
337.000                    65831.0000
337.500                    66140.9000
338.000                    65478.6000
338.500                    64892.0000
339.000                    64271.0000
339.500                    63327.8000
340.000                    62424.4000
340.500                    61696.3000
341.000                    61425.9000
341.500                    60868.0000
342.000                    60101.6000
342.500                    59699.3000
343.000                    59176.7000
343.500                    57620.6000
344.000                    56638.2000
344.500                    56263.9000
345.000                    55113.8000
345.500                    55034.3000
346.000                    54459.9000
346.500                    53478.1000
347.000                    53012.6000
347.500                    52690.8000
348.000                    51794.6000
348.500                    51301.6000
349.000                    50636.1000
349.500                    49939.4000
350.000                    49478.4000
350.500                    48869.9000
351.000                    48268.6000
351.500                    47620.1000
352.000                    47590.2000
352.500                    47137.2000
353.000                    47004.5000
353.500                    46444.3000
354.000                    45741.5000
354.500                    45306.7000
355.000                    45322.6000
355.500                    45292.0000
356.000                    45391.4000
356.500                    45505.7000
357.000                    45898.5000
357.500                    46042.7000
358.000                    46573.7000
358.500                    46612.6000
359.000                    46124.7000
359.500                    46265.2000
360.000                    45618.3000
360.500                    45419.0000
361.000                    45305.3000
361.500                    44954.7000
362.000                    45039.1000
362.500                    45381.5000
363.000                    45717.0000
363.500                    45552.1000
364.000                    45632.6000
364.500                    45152.8000
365.000                    44899.4000
365.500                    44911.6000
366.000                    44115.6000
366.500                    44132.1000
367.000                    43891.9000
367.500                    43357.3000
368.000                    43074.2000
368.500                    43026.2000
369.000                    42956.8000
369.500                    43346.8000
370.000                    43080.7000
370.500                    43185.4000
371.000                    43490.0000
371.500                    43016.3000
372.000                    43233.9000
372.500                    42976.4000
373.000                    42737.1000
373.500                    42901.7000
374.000                    43118.1000
374.500                    42628.0000
375.000                    42764.5000
375.500                    42977.7000
376.000                    42518.7000
376.500                    42574.1000
377.000                    43001.7000
377.500                    42987.4000
378.000                    42798.1000
378.500                    43049.5000
379.000                    43092.1000
379.500                    43111.1000
380.000                    42705.4000
380.500                    42873.0000
381.000                    43204.4000
381.500                    43012.0000
382.000                    43141.7000
382.500                    43158.1000
383.000                    43178.0000
383.500                    43227.2000
384.000                    43162.3000
384.500                    43608.9000
385.000                    43632.3000
385.500                    43700.4000
386.000                    43644.1000
386.500                    43852.6000
387.000                    43905.7000
387.500                    44107.9000
388.000                    43824.9000
388.500                    44418.6000
389.000                    43755.6000
389.500                    43997.6000
390.000                    44121.0000
390.500                    44325.3000
391.000                    44389.0000
391.500                    44560.1000
392.000                    44967.4000
392.500                    45486.6000
393.000                    45962.4000
393.500                    46632.3000
394.000                    46935.9000
394.500                    47708.9000
395.000                    48892.5000
