# Transition                      wide 
# Notes                           
# Creation Comment                
# Energy Mode                     KE
# Start Energy in eV              150
# End Energy in eV                1260
# Energy Step in eV               0.5
# Number Of Sweeps                1
# Dwell Time per Sweep in s       0.3
# Analyser Mode                   CAE
# Pass Energy in eV/Retard Ratio  50
# Magnification                   high
# Divide Voltages By 10           off
# Excitation Source               Mg Ka 1253.6 eV normal
# Excitation Energy in eV         1253.6
# Analyser Workfunction in eV     4.5
# Entrance Slit                   6 x 12 mm
# Exit Slit                       5 x 11 mm
# 
# 
# Kinetic Energy in eV         Counts
# --------------------         ------
150.000                    18404.7000
150.500                    18248.8000
151.000                    18332.0000
151.500                    18112.5000
152.000                    18009.1000
152.500                    18047.9000
153.000                    18450.2000
153.500                    18328.4000
154.000                    18115.5000
154.500                    18140.6000
155.000                    18276.4000
155.500                    18356.0000
156.000                    18370.3000
156.500                    18180.3000
157.000                    18134.9000
157.500                    18362.5000
158.000                    18275.1000
158.500                    18183.6000
159.000                    18129.7000
159.500                    18009.9000
160.000                    18092.9000
160.500                    18023.0000
161.000                    17914.6000
161.500                    18082.5000
162.000                    18044.5000
162.500                    17952.3000
163.000                    17748.7000
163.500                    17971.1000
164.000                    18160.1000
164.500                    18127.8000
165.000                    17935.6000
165.500                    17913.8000
166.000                    17916.8000
166.500                    17992.0000
167.000                    17874.5000
167.500                    17856.0000
168.000                    18026.1000
168.500                    17844.1000
169.000                    17904.9000
169.500                    17930.7000
170.000                    17932.9000
170.500                    17707.1000
171.000                    17812.8000
171.500                    17894.1000
172.000                    17793.3000
172.500                    17656.8000
173.000                    17939.3000
173.500                    17898.6000
174.000                    17590.2000
174.500                    17757.7000
175.000                    17613.2000
175.500                    17640.9000
176.000                    17582.5000
176.500                    17726.7000
177.000                    17687.6000
177.500                    17662.7000
178.000                    17429.3000
178.500                    17370.5000
179.000                    17606.3000
179.500                    17643.4000
180.000                    17586.0000
180.500                    17459.4000
181.000                    17449.1000
181.500                    17618.9000
182.000                    17434.9000
182.500                    17518.5000
183.000                    17552.8000
183.500                    17436.0000
184.000                    17535.3000
184.500                    17372.4000
185.000                    17510.6000
185.500                    17422.6000
186.000                    17367.5000
186.500                    17352.8000
187.000                    17420.3000
187.500                    17383.6000
188.000                    17310.7000
188.500                    17328.7000
189.000                    17452.6000
189.500                    17321.3000
190.000                    17083.0000
190.500                    17186.4000
191.000                    17369.3000
191.500                    17133.8000
192.000                    17458.7000
192.500                    17474.3000
193.000                    17146.5000
193.500                    17012.4000
194.000                    17248.8000
194.500                    17162.6000
195.000                    17038.4000
195.500                    17259.1000
196.000                    17199.4000
196.500                    17081.8000
197.000                    17116.2000
197.500                    17061.5000
198.000                    17160.1000
198.500                    17288.6000
199.000                    17028.0000
199.500                    16951.4000
200.000                    17069.1000
200.500                    17114.3000
201.000                    17046.2000
201.500                    17076.5000
202.000                    16871.1000
202.500                    17070.0000
203.000                    17226.3000
203.500                    17120.4000
204.000                    17031.2000
204.500                    16974.6000
205.000                    16940.1000
205.500                    17050.1000
206.000                    17000.7000
206.500                    16858.7000
207.000                    16904.6000
207.500                    17031.8000
208.000                    17027.7000
208.500                    17088.9000
209.000                    17019.5000
209.500                    17009.6000
210.000                    16975.0000
210.500                    16912.2000
211.000                    16743.5000
211.500                    16832.1000
212.000                    16989.0000
212.500                    16915.8000
213.000                    16831.9000
213.500                    16987.3000
214.000                    17001.6000
214.500                    16867.0000
215.000                    16746.2000
215.500                    16936.1000
216.000                    16781.7000
216.500                    16912.2000
217.000                    16886.5000
217.500                    16795.4000
218.000                    16781.0000
218.500                    16769.2000
219.000                    16840.2000
219.500                    16660.4000
220.000                    16881.3000
220.500                    16942.8000
221.000                    16924.5000
221.500                    16970.2000
222.000                    16824.8000
222.500                    16885.5000
223.000                    16684.7000
223.500                    16842.6000
224.000                    16735.6000
224.500                    16564.4000
225.000                    16600.5000
225.500                    16418.6000
226.000                    16621.9000
226.500                    16619.6000
227.000                    16706.5000
227.500                    16485.6000
228.000                    16416.5000
228.500                    16393.2000
229.000                    16425.9000
229.500                    16674.5000
230.000                    16663.8000
230.500                    16594.1000
231.000                    16387.7000
231.500                    16568.1000
232.000                    16476.5000
232.500                    16403.6000
233.000                    16697.9000
233.500                    16715.9000
234.000                    16838.0000
234.500                    16654.4000
235.000                    16753.7000
235.500                    17164.3000
236.000                    17373.3000
236.500                    17599.7000
237.000                    17724.0000
237.500                    18096.0000
238.000                    18374.7000
238.500                    18785.3000
239.000                    19032.9000
239.500                    19357.4000
240.000                    19412.4000
240.500                    19003.0000
241.000                    18695.1000
241.500                    18171.7000
242.000                    17665.8000
242.500                    17403.6000
243.000                    16894.8000
243.500                    16841.6000
244.000                    16667.2000
244.500                    16563.3000
245.000                    16552.5000
245.500                    16609.3000
246.000                    16582.5000
246.500                    16549.6000
247.000                    16043.1000
247.500                    16059.8000
248.000                    16041.5000
248.500                    16053.1000
249.000                    15994.6000
249.500                    15989.7000
250.000                    16091.5000
250.500                    16221.3000
251.000                    16108.0000
251.500                    16293.3000
252.000                    16506.0000
252.500                    16408.7000
253.000                    16607.4000
253.500                    16730.6000
254.000                    16819.1000
254.500                    17008.0000
255.000                    16947.7000
255.500                    17153.3000
256.000                    17243.8000
256.500                    17103.5000
257.000                    17316.1000
257.500                    17210.2000
258.000                    17527.4000
258.500                    17578.4000
259.000                    17428.2000
259.500                    17408.5000
260.000                    17348.3000
260.500                    17220.2000
261.000                    17284.2000
261.500                    17035.5000
262.000                    16956.4000
262.500                    17106.8000
263.000                    16735.7000
263.500                    16646.6000
264.000                    16554.3000
264.500                    16501.9000
265.000                    16114.6000
265.500                    16155.5000
266.000                    16082.8000
266.500                    15778.9000
267.000                    15511.3000
267.500                    15551.1000
268.000                    15365.5000
268.500                    15326.6000
269.000                    15176.8000
269.500                    14907.9000
270.000                    14440.2000
270.500                    14246.2000
271.000                    13955.5000
271.500                    13843.1000
272.000                    13519.5000
272.500                    13127.1000
273.000                    12919.3000
273.500                    12683.6000
274.000                    12368.8000
274.500                    12212.5000
275.000                    11980.1000
275.500                    11656.1000
276.000                    11484.5000
276.500                    11189.0000
277.000                    10899.2000
277.500                    10815.6000
278.000                    10607.7000
278.500                    10349.9000
279.000                    10238.3000
279.500                    10249.2000
280.000                    10068.5000
280.500                    10025.2000
281.000                     9860.2000
281.500                     9487.4000
282.000                     9367.6000
282.500                     9226.4000
283.000                     9235.4000
283.500                     9163.1000
284.000                     9086.0000
284.500                     9141.2000
285.000                     8987.9000
285.500                     9167.1000
286.000                     8979.6000
286.500                     9009.7000
287.000                     8986.7000
287.500                     8833.2000
288.000                     8993.3000
288.500                     9149.8000
289.000                     9016.2000
289.500                     8817.5000
290.000                     8822.1000
290.500                     8827.0000
291.000                     8977.0000
291.500                     8910.2000
292.000                     8886.9000
292.500                     8836.4000
293.000                     8997.1000
293.500                     9067.4000
294.000                     9082.3000
294.500                     8960.4000
295.000                     8808.6000
295.500                     8924.1000
296.000                     8992.1000
296.500                     8910.8000
297.000                     8938.1000
297.500                     8897.0000
298.000                     8949.9000
298.500                     8945.2000
299.000                     8914.0000
299.500                     9023.4000
300.000                     8908.6000
300.500                     8840.9000
301.000                     9028.6000
301.500                     8953.6000
302.000                     8973.4000
302.500                     8967.0000
303.000                     8995.6000
303.500                     8889.1000
304.000                     8877.4000
304.500                     8985.1000
305.000                     8807.2000
305.500                     8804.0000
306.000                     8843.7000
306.500                     8842.5000
307.000                     8934.3000
307.500                     8941.6000
308.000                     8938.7000
308.500                     8864.0000
309.000                     8832.4000
309.500                     8934.9000
310.000                     8877.2000
310.500                     8982.1000
311.000                     8880.5000
311.500                     8738.4000
312.000                     8756.5000
312.500                     8844.6000
313.000                     8878.5000
313.500                     8905.7000
314.000                     8833.7000
314.500                     8942.3000
315.000                     9013.8000
315.500                     8903.1000
316.000                     8728.9000
316.500                     8950.6000
317.000                     8831.6000
317.500                     8906.2000
318.000                     8765.8000
318.500                     8925.5000
319.000                     8711.6000
319.500                     8990.7000
320.000                     8988.4000
320.500                     8915.6000
321.000                     8714.3000
321.500                     8929.8000
322.000                     9021.7000
322.500                     8843.2000
323.000                     8817.9000
323.500                     8934.0000
324.000                     8910.4000
324.500                     8785.9000
325.000                     8788.6000
325.500                     8892.9000
326.000                     8803.1000
326.500                     8847.2000
327.000                     8765.7000
327.500                     8762.1000
328.000                     8776.9000
328.500                     8809.2000
329.000                     8783.2000
329.500                     8793.4000
330.000                     8829.1000
330.500                     8760.6000
331.000                     8830.2000
331.500                     8776.3000
332.000                     8778.9000
332.500                     8783.2000
333.000                     8678.1000
333.500                     8731.2000
334.000                     8679.7000
334.500                     8608.5000
335.000                     8708.1000
335.500                     8758.5000
336.000                     8757.2000
336.500                     8804.6000
337.000                     8754.5000
337.500                     8781.0000
338.000                     8648.9000
338.500                     8700.9000
339.000                     8735.1000
339.500                     8657.3000
340.000                     8832.4000
340.500                     8569.1000
341.000                     8628.9000
341.500                     8682.5000
342.000                     8626.1000
342.500                     8621.9000
343.000                     8739.3000
343.500                     8746.7000
344.000                     8645.9000
344.500                     8783.9000
345.000                     8636.4000
345.500                     8689.6000
346.000                     8705.0000
346.500                     8661.8000
347.000                     8654.1000
347.500                     8535.4000
348.000                     8554.0000
348.500                     8394.2000
349.000                     8488.2000
349.500                     8386.2000
350.000                     8411.0000
350.500                     8296.0000
351.000                     8070.2000
351.500                     8203.3000
352.000                     8083.6000
352.500                     8117.1000
353.000                     8148.2000
353.500                     8077.4000
354.000                     8083.6000
354.500                     8137.4000
355.000                     8050.8000
355.500                     8166.0000
356.000                     8185.3000
356.500                     8167.2000
357.000                     8116.5000
357.500                     8041.0000
358.000                     8100.0000
358.500                     8091.7000
359.000                     8013.0000
359.500                     7983.6000
360.000                     7983.6000
360.500                     7909.4000
361.000                     7831.6000
361.500                     8011.0000
362.000                     7957.1000
362.500                     7864.0000
363.000                     7876.1000
363.500                     7865.7000
364.000                     7848.6000
364.500                     7907.6000
365.000                     7791.4000
365.500                     7759.1000
366.000                     7656.0000
366.500                     7715.0000
367.000                     7658.6000
367.500                     7775.4000
368.000                     7603.5000
368.500                     7711.4000
369.000                     7557.7000
369.500                     7723.6000
370.000                     7767.8000
370.500                     7704.7000
371.000                     7606.6000
371.500                     7807.9000
372.000                     7664.5000
372.500                     7701.6000
373.000                     7740.8000
373.500                     7682.0000
374.000                     7640.0000
374.500                     7604.9000
375.000                     7605.6000
375.500                     7683.6000
376.000                     7733.3000
376.500                     7733.5000
377.000                     7735.3000
377.500                     7775.8000
378.000                     7792.7000
378.500                     7712.9000
379.000                     7659.1000
379.500                     7614.0000
380.000                     7694.6000
380.500                     7713.6000
381.000                     7566.5000
381.500                     7552.1000
382.000                     7562.9000
382.500                     7679.4000
383.000                     7715.4000
383.500                     7693.5000
384.000                     7612.0000
384.500                     7580.5000
385.000                     7528.5000
385.500                     7655.0000
386.000                     7564.3000
386.500                     7658.3000
387.000                     7733.5000
387.500                     7655.7000
388.000                     7515.0000
388.500                     7684.3000
389.000                     7686.4000
389.500                     7776.2000
390.000                     7718.3000
390.500                     7656.6000
391.000                     7659.5000
391.500                     7576.7000
392.000                     7679.7000
392.500                     7740.7000
393.000                     7608.0000
393.500                     7635.8000
394.000                     7480.8000
394.500                     7640.8000
395.000                     7615.0000
