# Transition                      wide 
# Notes                           
# Creation Comment                
# Energy Mode                     KE
# Start Energy in eV              150
# End Energy in eV                1260
# Energy Step in eV               0.5
# Number Of Sweeps                1
# Dwell Time per Sweep in s       0.3
# Analyser Mode                   CAE
# Pass Energy in eV/Retard Ratio  50
# Magnification                   high
# Divide Voltages By 10           off
# Excitation Source               Mg Ka 1253.6 eV normal
# Excitation Energy in eV         1253.6
# Analyser Workfunction in eV     4.5
# Entrance Slit                   6 x 12 mm
# Exit Slit                       5 x 11 mm
# 
# 
# Kinetic Energy in eV         Counts
# --------------------         ------
150.000                    18256.2000
150.500                    18094.9000
151.000                    17941.2000
151.500                    18027.9000
152.000                    17961.1000
152.500                    17761.4000
153.000                    17857.0000
153.500                    17718.6000
154.000                    17773.9000
154.500                    17755.6000
155.000                    18037.4000
155.500                    17843.0000
156.000                    18030.1000
156.500                    18045.9000
157.000                    17736.4000
157.500                    17807.3000
158.000                    17969.6000
158.500                    17806.4000
159.000                    17687.3000
159.500                    17730.8000
160.000                    17602.4000
160.500                    17712.0000
161.000                    17724.6000
161.500                    17818.2000
162.000                    17909.9000
162.500                    17715.5000
163.000                    17715.8000
163.500                    17658.0000
164.000                    17559.4000
164.500                    17624.7000
165.000                    17550.8000
165.500                    17750.9000
166.000                    17479.4000
166.500                    17603.4000
167.000                    17471.1000
167.500                    17663.1000
168.000                    17596.6000
168.500                    17587.1000
169.000                    17665.1000
169.500                    17351.5000
170.000                    17345.0000
170.500                    17578.8000
171.000                    17817.1000
171.500                    17396.7000
172.000                    17486.4000
172.500                    17422.0000
173.000                    17421.4000
173.500                    17369.1000
174.000                    17375.9000
174.500                    17520.5000
175.000                    17558.2000
175.500                    17364.7000
176.000                    17568.2000
176.500                    17686.8000
177.000                    17452.6000
177.500                    17504.1000
178.000                    17480.6000
178.500                    17692.4000
179.000                    17713.7000
179.500                    17453.0000
180.000                    17303.2000
180.500                    17302.8000
181.000                    17329.0000
181.500                    17514.2000
182.000                    17353.0000
182.500                    17345.7000
183.000                    17310.8000
183.500                    17230.8000
184.000                    17424.4000
184.500                    17411.9000
185.000                    17330.5000
185.500                    17025.8000
186.000                    17197.5000
186.500                    17069.3000
187.000                    17367.2000
187.500                    17489.1000
188.000                    17237.7000
188.500                    17162.5000
189.000                    17351.3000
189.500                    17145.4000
190.000                    17280.7000
190.500                    17058.8000
191.000                    17263.6000
191.500                    17315.5000
192.000                    17193.7000
192.500                    17133.5000
193.000                    17042.8000
193.500                    16988.8000
194.000                    17400.5000
194.500                    17151.1000
195.000                    17052.9000
195.500                    17213.5000
196.000                    17160.2000
196.500                    16966.2000
197.000                    16958.7000
197.500                    16927.8000
198.000                    17226.7000
198.500                    17254.9000
199.000                    17087.6000
199.500                    16840.8000
200.000                    16843.6000
200.500                    17086.4000
201.000                    17163.3000
201.500                    16904.4000
202.000                    17129.5000
202.500                    17125.4000
203.000                    16943.5000
203.500                    17077.9000
204.000                    16952.3000
204.500                    17213.8000
205.000                    16937.5000
205.500                    16850.5000
206.000                    16952.9000
206.500                    16847.0000
207.000                    16871.9000
207.500                    16842.4000
208.000                    16974.8000
208.500                    17054.4000
209.000                    16892.0000
209.500                    16886.5000
210.000                    17108.7000
210.500                    16733.2000
211.000                    16686.7000
211.500                    16841.2000
212.000                    16875.7000
212.500                    16743.5000
213.000                    16784.0000
213.500                    16921.7000
214.000                    16853.0000
214.500                    16942.1000
215.000                    17030.5000
215.500                    16930.2000
216.000                    16973.2000
216.500                    17043.0000
217.000                    16806.3000
217.500                    16905.3000
218.000                    16934.0000
218.500                    16824.6000
219.000                    16972.3000
219.500                    16834.4000
220.000                    16809.5000
220.500                    16960.1000
221.000                    16860.5000
221.500                    16835.0000
222.000                    16900.0000
222.500                    16744.1000
223.000                    16753.0000
223.500                    16662.9000
224.000                    16783.7000
224.500                    16697.2000
225.000                    16670.1000
225.500                    16735.5000
226.000                    16626.8000
226.500                    16593.0000
227.000                    16546.1000
227.500                    16543.1000
228.000                    16483.6000
228.500                    16584.0000
229.000                    16678.2000
229.500                    16497.6000
230.000                    16448.0000
230.500                    16477.9000
231.000                    16519.3000
231.500                    16453.8000
232.000                    16556.7000
232.500                    16373.1000
233.000                    16541.7000
233.500                    16726.0000
234.000                    16718.3000
234.500                    16727.1000
235.000                    17026.2000
235.500                    17269.9000
236.000                    17483.9000
236.500                    17486.9000
237.000                    17837.6000
237.500                    18128.5000
238.000                    18565.4000
238.500                    18683.4000
239.000                    18682.4000
239.500                    18773.4000
240.000                    18580.0000
240.500                    18476.5000
241.000                    17980.6000
241.500                    17975.9000
242.000                    17468.4000
242.500                    17271.1000
243.000                    17004.7000
243.500                    16956.5000
244.000                    16948.0000
244.500                    17080.6000
245.000                    16916.8000
245.500                    16715.9000
246.000                    16510.8000
246.500                    16651.4000
247.000                    16598.2000
247.500                    16551.5000
248.000                    16644.1000
248.500                    16441.4000
249.000                    16344.5000
249.500                    16309.8000
250.000                    16393.5000
250.500                    16186.2000
251.000                    16351.3000
251.500                    16268.5000
252.000                    16374.1000
252.500                    16407.1000
253.000                    16522.5000
253.500                    16758.7000
254.000                    16667.3000
254.500                    16816.3000
255.000                    16897.8000
255.500                    17220.2000
256.000                    17167.0000
256.500                    17267.6000
257.000                    17445.4000
257.500                    17692.2000
258.000                    17718.0000
258.500                    17440.8000
259.000                    17558.7000
259.500                    17482.4000
260.000                    17393.7000
260.500                    17493.6000
261.000                    17360.0000
261.500                    17271.9000
262.000                    17186.5000
262.500                    16891.3000
263.000                    16907.5000
263.500                    16822.4000
264.000                    16889.8000
264.500                    16561.3000
265.000                    16181.8000
265.500                    15977.1000
266.000                    15715.2000
266.500                    15477.8000
267.000                    15003.0000
267.500                    14795.2000
268.000                    14677.2000
268.500                    14344.8000
269.000                    14337.8000
269.500                    13974.9000
270.000                    13797.1000
270.500                    13557.9000
271.000                    13316.6000
271.500                    12992.5000
272.000                    12762.3000
272.500                    12521.3000
273.000                    12535.7000
273.500                    12127.5000
274.000                    12079.5000
274.500                    11738.8000
275.000                    11733.1000
275.500                    11514.5000
276.000                    11245.0000
276.500                    11214.8000
277.000                    11075.1000
277.500                    11006.2000
278.000                    10822.4000
278.500                    10663.9000
279.000                    10655.8000
279.500                    10576.4000
280.000                    10392.4000
280.500                    10332.2000
281.000                    10252.4000
281.500                    10171.5000
282.000                     9943.9000
282.500                    10143.8000
283.000                    10096.5000
283.500                     9820.5000
284.000                     9900.4000
284.500                     9937.2000
285.000                     9913.1000
285.500                     9804.5000
286.000                     9776.7000
286.500                     9780.1000
287.000                     9801.2000
287.500                     9860.1000
288.000                     9755.7000
288.500                     9726.9000
289.000                     9797.0000
289.500                     9802.9000
290.000                     9843.8000
290.500                     9912.8000
291.000                     9942.7000
291.500                     9926.6000
292.000                     9729.8000
292.500                     9690.5000
293.000                     9811.9000
293.500                     9755.1000
294.000                     9715.4000
294.500                     9651.4000
295.000                     9704.0000
295.500                     9723.2000
296.000                     9679.7000
296.500                     9835.6000
297.000                     9699.1000
297.500                     9705.0000
298.000                     9669.1000
298.500                     9790.9000
299.000                     9773.1000
299.500                     9771.6000
300.000                     9801.6000
300.500                     9822.6000
301.000                     9831.8000
301.500                     9730.8000
302.000                     9841.7000
302.500                     9789.6000
303.000                     9689.2000
303.500                     9814.7000
304.000                     9730.7000
304.500                     9726.2000
305.000                     9904.1000
305.500                     9705.2000
306.000                     9679.7000
306.500                     9599.9000
307.000                     9702.6000
307.500                     9507.9000
308.000                     9576.0000
308.500                     9727.9000
309.000                     9861.9000
309.500                     9741.1000
310.000                     9772.0000
310.500                     9825.3000
311.000                     9708.6000
311.500                     9642.8000
312.000                     9683.3000
312.500                     9760.8000
313.000                     9614.0000
313.500                     9673.5000
314.000                     9468.4000
314.500                     9803.9000
315.000                     9622.5000
315.500                     9602.8000
316.000                     9618.5000
316.500                     9653.4000
317.000                     9580.8000
317.500                     9678.7000
318.000                     9794.7000
318.500                     9736.2000
319.000                     9528.5000
319.500                     9593.9000
320.000                     9724.7000
320.500                     9593.8000
321.000                     9688.8000
321.500                     9657.4000
322.000                     9592.2000
322.500                     9510.0000
323.000                     9582.7000
323.500                     9653.2000
324.000                     9662.5000
324.500                     9648.0000
325.000                     9639.4000
325.500                     9674.8000
326.000                     9731.4000
326.500                     9550.5000
327.000                     9545.3000
327.500                     9531.7000
328.000                     9445.3000
328.500                     9516.6000
329.000                     9626.6000
329.500                     9646.1000
330.000                     9547.5000
330.500                     9677.1000
331.000                     9670.9000
331.500                     9692.9000
332.000                     9474.7000
332.500                     9618.8000
333.000                     9671.9000
333.500                     9553.1000
334.000                     9546.4000
334.500                     9582.5000
335.000                     9481.0000
335.500                     9458.7000
336.000                     9588.4000
336.500                     9679.5000
337.000                     9748.5000
337.500                     9742.6000
338.000                     9599.5000
338.500                     9646.0000
339.000                     9540.1000
339.500                     9697.1000
340.000                     9494.5000
340.500                     9541.4000
341.000                     9592.0000
341.500                     9582.5000
342.000                     9592.7000
342.500                     9541.0000
343.000                     9620.1000
343.500                     9565.5000
344.000                     9613.5000
344.500                     9599.5000
345.000                     9437.0000
345.500                     9606.3000
346.000                     9587.5000
346.500                     9549.1000
347.000                     9437.1000
347.500                     9451.3000
348.000                     9544.6000
348.500                     9541.7000
349.000                     9624.3000
349.500                     9502.3000
350.000                     9481.7000
350.500                     9510.0000
351.000                     9488.4000
351.500                     9411.8000
352.000                     9514.1000
352.500                     9574.3000
353.000                     9453.4000
353.500                     9535.6000
354.000                     9601.7000
354.500                     9601.2000
355.000                     9555.7000
355.500                     9337.6000
356.000                     9410.8000
356.500                     9492.0000
357.000                     9576.8000
357.500                     9559.5000
358.000                     9547.9000
358.500                     9523.4000
359.000                     9588.2000
359.500                     9592.2000
360.000                     9613.6000
360.500                     9540.6000
361.000                     9474.8000
361.500                     9691.0000
362.000                     9504.2000
362.500                     9535.4000
363.000                     9707.6000
363.500                     9535.6000
364.000                     9593.4000
364.500                     9587.5000
365.000                     9499.6000
365.500                     9428.7000
366.000                     9564.9000
366.500                     9418.9000
367.000                     9531.2000
367.500                     9532.3000
368.000                     9398.2000
368.500                     9454.9000
369.000                     9516.3000
369.500                     9608.7000
370.000                     9489.7000
370.500                     9530.9000
371.000                     9566.1000
371.500                     9546.8000
372.000                     9459.4000
372.500                     9531.6000
373.000                     9684.7000
373.500                     9393.2000
374.000                     9503.8000
374.500                     9565.4000
375.000                     9629.6000
375.500                     9608.1000
376.000                     9517.3000
376.500                     9637.9000
377.000                     9550.1000
377.500                     9511.0000
378.000                     9570.3000
378.500                     9695.8000
379.000                     9609.9000
379.500                     9554.3000
380.000                     9620.0000
380.500                     9525.1000
381.000                     9606.3000
381.500                     9585.0000
382.000                     9541.8000
382.500                     9421.6000
383.000                     9444.0000
383.500                     9518.9000
384.000                     9486.1000
384.500                     9551.3000
385.000                     9586.1000
385.500                     9615.8000
386.000                     9493.7000
386.500                     9741.2000
387.000                     9557.6000
387.500                     9440.9000
388.000                     9358.6000
388.500                     9393.1000
389.000                     9627.4000
389.500                     9376.8000
390.000                     9534.7000
390.500                     9556.4000
391.000                     9515.5000
391.500                     9438.1000
392.000                     9509.8000
392.500                     9568.3000
393.000                     9485.0000
393.500                     9439.9000
394.000                     9391.3000
394.500                     9595.1000
395.000                     9336.3000
